     p(bar)       T(K)       Flwdn       Flwup
  1.0025E-04  2.0300E+02  1.0672E-02  2.6681E+02
  3.0075E-04  2.0300E+02  1.8395E-02  2.6681E+02
  4.0099E-04  2.0300E+02  2.5993E-02  2.6682E+02
  5.0124E-04  2.0300E+02  3.3281E-02  2.6682E+02
  7.0174E-04  2.0300E+02  4.5535E-02  2.6682E+02
  9.5410E-04  2.0300E+02  6.0130E-02  2.6683E+02
  1.0025E-03  2.0300E+02  6.4452E-02  2.6683E+02
  2.0050E-03  2.0300E+02  1.1629E-01  2.6684E+02
  3.0075E-03  2.0300E+02  1.6886E-01  2.6684E+02
  3.0949E-03  2.0300E+02  1.7522E-01  2.6685E+02
  4.0099E-03  2.0300E+02  2.2414E-01  2.6685E+02
  5.0124E-03  2.0300E+02  2.7812E-01  2.6686E+02
  5.3273E-03  2.0300E+02  2.9647E-01  2.6686E+02
  7.0174E-03  2.0300E+02  3.8783E-01  2.6687E+02
  1.0025E-02  2.0300E+02  5.5054E-01  2.6688E+02
  2.0050E-02  2.0300E+02  1.0911E+00  2.6693E+02
  3.0075E-02  2.0300E+02  1.6275E+00  2.6698E+02
  4.0099E-02  2.0300E+02  2.1560E+00  2.6705E+02
  4.7705E-02  2.0300E+02  2.5527E+00  2.6710E+02
  5.0124E-02  2.0300E+02  2.6793E+00  2.6712E+02
  7.0174E-02  2.0300E+02  3.7044E+00  2.6731E+02
  1.0025E-01  2.0300E+02  5.2099E+00  2.6766E+02
  1.5037E-01  2.0300E+02  7.6345E+00  2.6851E+02
  1.5474E-01  2.0300E+02  7.8425E+00  2.6861E+02
  2.0050E-01  2.0300E+02  9.9508E+00  2.6982E+02
  2.1443E-01  2.0300E+02  1.0574E+01  2.7033E+02
  2.5062E-01  2.1275E+02  1.3843E+01  2.7226E+02
  2.6636E-01  2.1657E+02  1.6300E+01  2.7320E+02
  3.0075E-01  2.2434E+02  2.4456E+01  2.7584E+02
  3.5087E-01  2.3439E+02  4.0643E+01  2.8107E+02
  4.0099E-01  2.4306E+02  5.8792E+01  2.8745E+02
  4.5112E-01  2.5048E+02  7.7702E+01  2.9462E+02
  5.0124E-01  2.5677E+02  9.7073E+01  3.0212E+02
  5.5137E-01  2.6211E+02  1.1713E+02  3.0974E+02
  6.0149E-01  2.6668E+02  1.3764E+02  3.1734E+02
  6.5162E-01  2.7062E+02  1.5784E+02  3.2469E+02
  7.0174E-01  2.7408E+02  1.7737E+02  3.3161E+02
  7.2680E-01  2.7566E+02  1.8691E+02  3.3477E+02
  7.5187E-01  2.7716E+02  1.9629E+02  3.3761E+02
  7.7693E-01  2.7859E+02  2.0555E+02  3.3901E+02
  8.0199E-01  2.7995E+02  3.4469E+02  3.6900E+02
  8.2705E-01  2.8125E+02  3.4797E+02  3.7309E+02
  8.5211E-01  2.8249E+02  3.5098E+02  3.7656E+02
  8.7718E-01  2.8368E+02  3.5435E+02  3.8000E+02
  9.0224E-01  2.8483E+02  3.5806E+02  3.8343E+02
  9.2730E-01  2.8593E+02  3.6204E+02  3.8678E+02
  9.5236E-01  2.8699E+02  3.6623E+02  3.9001E+02
  9.7743E-01  2.8801E+02  3.7052E+02  3.9297E+02
  1.0025E+00  2.8900E+02  3.7485E+02  3.9517E+02
